Spectrum	t0	t0_Err	L0	L0_Err	L1	L1_Err	E1	E1_Err	theta	theta_Err
3	-0.0934574	0.0559156	11.0049	0.000636239	0.644473	9.72872e-05	4919.36	0.0815012	131.692	0.394588
4	-0.0266972	0.0660976	11.0049	0.000636239	0.627139	7.76114e-05	4920.22	0.065018	133.185	0.417179
5	-0.0352965	0.0375227	11.0049	0.000636239	0.620197	7.56615e-05	4909.28	0.0633845	134.019	0.397331
6	-0.00535964	0.00925765	11.0049	0.000636239	0.617936	8.75882e-05	4922.74	0.073376	134.132	0.433047
7	-0.0855118	0.0742484	11.0049	0.000636239	0.630187	8.47222e-05	4910.21	0.070975	133.196	0.484903
8	0.0729922	0.0516334	11.0049	0.000636239	0.645053	8.56627e-05	4913.17	0.0717629	131.985	0.433139
9	-0.0141047	0.00166777	11.0049	0.000636239	0.615705	7.53163e-05	4922.93	0.0630953	134.07	0.382243
10	0.0768188	0.0118884	11.0049	0.000636239	0.605261	6.63317e-05	4906.97	0.0555686	135.358	0.445564
11	0.0408698	0.0775385	11.0049	0.000636239	0.596228	6.52355e-05	4911.94	0.0546503	110.689	43.4994
12	0.0168761	0.000176126	11.0049	0.000636239	0.606287	6.65807e-05	4900.08	0.0557772	135.485	0.457416
13	-0.0359973	0.0270808	11.0049	0.000636239	0.621585	7.0098e-05	4905.36	0.0587238	134.161	0.427876
14	0.0569431	0.01756	11.0049	0.000636239	0.601189	7.95395e-05	4910.63	0.0666332	135.478	0.432331
15	0.0580276	0.0231468	11.0049	0.000636239	0.589883	6.36163e-05	4903.35	0.0532938	137.071	0.441491
16	0.00213241	0.0708738	11.0049	0.000636239	0.582908	6.1579e-05	4906.42	0.051587	137.772	0.460155
17	-0.0295485	0.0662615	11.0049	0.000636239	0.591147	5.9029e-05	4908.07	0.0494509	137.222	0.448691
18	0.0616565	0.0522761	11.0049	0.000636239	0.599441	6.35282e-05	4910.75	0.05322	136.19	0.41647
19	-0.120997	0.0378509	11.0049	0.000636239	0.585393	6.66321e-05	4915.57	0.0558203	137.287	0.44229
20	-0.0480269	0.0350692	11.0049	0.000636239	0.573266	5.91024e-05	4915.17	0.0495123	138.983	0.493554
21	-0.0171314	0.0774807	11.0049	0.000636239	0.5657	6.03258e-05	4913.64	0.0505372	139.712	0.492822
22	0.0817718	0.0177244	11.0049	0.000636239	0.570132	6.2988e-05	4917.04	0.0527674	139.179	0.507359
23	-0.0226784	0.0246723	11.0049	0.000636239	0.55674	6.06534e-05	4917.29	0.0508116	140.274	0.507686
24	0.00133781	0.0820521	11.0049	0.000636239	0.555366	5.97071e-05	4907.55	0.0500189	141.375	0.489949
25	-0.0583285	0.00110281	11.0049	0.000636239	0.555889	5.42677e-05	4903.84	0.0454621	141.516	0.522836
26	-0.00272881	0.00512735	11.0049	0.000636239	0.565652	5.58081e-05	4906.22	0.0467526	139.984	0.159774
27	-0.0112172	0.00343019	11.0049	0.000636239	0.542902	6.14667e-05	4915.06	0.051493	142.222	0.510509
28	-0.135807	0.0153997	11.0049	0.000636239	0.544161	5.46831e-05	4902.53	0.0458101	143.435	0.538767
29	-0.150149	0.0142591	11.0049	0.000636239	0.542911	5.14996e-05	4907.43	0.0431432	143.561	0.543321
30	0.00955569	0.0585875	11.0049	0.000636239	0.547904	5.19381e-05	4908.61	0.0435105	142.373	0.514393
31	0.142149	0.0499447	11.0049	0.000636239	0.521945	5.57469e-05	4915.36	0.0467013	145.326	0.577247
32	0.0142646	0.0284965	11.0049	0.000636239	0.522626	5.16115e-05	4903.81	0.0432369	146.171	0.591212
33	0.0555441	0.00491129	11.0049	0.000636239	0.523532	5.39875e-05	4910.59	0.0452274	145.554	0.573422
34	0.0271431	0.00994585	11.0049	0.000636239	0.507961	5.36813e-05	4912.83	0.0449709	147.696	0.633885
35	-0.056123	0.00121628	11.0049	0.000636239	0.512885	4.89238e-05	4899.91	0.0409853	148.47	0.691176
36	-0.000485706	0.0309781	11.0049	0.000636239	0.513011	5.16567e-05	4910.61	0.0432748	147.681	0.649704
37	-0.00614271	0.0600291	11.0049	0.000636239	0.497573	6.01075e-05	4913.16	0.0503544	149.874	0.589703
38	-0.0266507	0.017594	11.0049	0.000636239	0.494909	4.66837e-05	4907.01	0.0391087	151.219	0.705006
39	0.0643298	0.046165	11.0049	0.000636239	0.497471	4.99981e-05	4914.16	0.0418853	150.303	0.711379
40	-0.00451292	0.0449944	11.0049	0.000636239	0.482314	4.37846e-05	4908.93	0.03668	153.533	0.78166
41	-0.0190319	0.000606973	11.0049	0.000636239	0.486	4.42832e-05	4910.37	0.0370977	153.514	0.685251
42	0.0660233	0.044453	11.0049	0.000636239	0.468771	4.59726e-05	4908.55	0.038513	156.582	0.864806
43	-0.059571	0.0703523	11.0049	0.000636239	0.475047	4.42014e-05	4906.64	0.0370292	156.37	0.843564
44	-0.0958013	0.00533095	11.0049	0.000636239	0.451879	4.53141e-05	4912.23	0.0379614	163.036	1.21727
45	-0.0158031	0.0291869	11.0049	0.000636239	0.461839	4.72154e-05	4908.74	0.0395541	159.544	0.9914
46	-0.120844	0.00228337	11.0049	0.000636239	0.440541	5.93606e-05	4918.04	0.0497287	167.136	1.99477
47	-0.977986	0.230406	11.0049	0.000636239	0.665802	9.34086e-05	4899.48	0.0782519	131.542	0.400333
48	-0.234934	0.0678416	11.0049	0.000636239	0.632955	8.19024e-05	4910.15	0.0686128	133.273	0.410995
49	-0.089613	0.0257033	11.0049	0.000636239	0.620019	7.78032e-05	4904.82	0.0651787	133.663	0.481376
50	-0.258645	0.0269665	11.0049	0.000636239	0.626346	7.75993e-05	4901.11	0.0650078	133.933	0.417382
51	-0.250182	0.021056	11.0049	0.000636239	0.63445	7.79557e-05	4910.66	0.0653065	133.065	0.432135
52	-10.233	3.55356	11.0049	0.000636239	0.95121	9.63714e-05	4655.52	0.080734	125.676	0.366851
53	-0.395466	0.0584819	11.0049	0.000636239	0.626849	7.62944e-05	4910.83	0.0639147	134.118	0.408241
54	-0.228386	0.0839398	11.0049	0.000636239	0.611181	7.09869e-05	4908.46	0.0594684	135.411	0.49077
55	-3.91	3.55083	11.0049	0.000636239	0.72019	6.51224e-05	4830.12	0.0545555	133.237	0.43333
56	-0.111517	0.00562985	11.0049	0.000636239	0.607352	7.2721e-05	4904.13	0.0609212	135.301	0.42943
57	-0.238651	0.00778103	11.0049	0.000636239	0.62355	7.52439e-05	4906.89	0.0630346	133.902	0.448039
58	-0.325001	0.123871	11.0049	0.000636239	0.604249	7.28071e-05	4912.25	0.0609933	135.84	0.44221
59	-0.206905	0.0575747	11.0049	0.000636239	0.591094	6.49523e-05	4915.23	0.054413	137.25	0.435942
60	-0.0679267	0.0079254	11.0049	0.000636239	0.586258	6.31903e-05	4901.61	0.0529369	137.755	0.457193
61	-0.0657396	0.0172883	11.0049	0.000636239	0.593062	6.56983e-05	4905.29	0.055038	137.069	0.46862
62	-0.107371	0.101786	11.0049	0.000636239	0.605308	7.5801e-05	4907.26	0.0635013	135.813	0.461252
63	-0.24238	0.0106654	11.0049	0.000636239	0.585178	6.73522e-05	4912.65	0.0564235	137.631	0.469519
64	-0.148934	0.0103175	11.0049	0.000636239	0.568184	6.95797e-05	4909.8	0.0582895	139.42	0.466406
65	-0.180147	0.0163118	11.0049	0.000636239	0.57027	5.99868e-05	4905.12	0.0502532	139.68	0.48226
66	-0.134493	0.0480894	11.0049	0.000636239	0.576446	6.22267e-05	4902.12	0.0521297	138.946	0.48036
67	-0.141661	0.0126147	11.0049	0.000636239	0.558866	6.14146e-05	4917.02	0.0514493	140.51	0.479251
68	-0.2019	0.0539362	11.0049	0.000636239	0.555603	6.03944e-05	4909.86	0.0505947	141.647	0.501667
69	-0.186161	0.0111624	11.0049	0.000636239	0.557428	5.60204e-05	4908.08	0.0469305	141.472	0.500528
70	-0.180009	0.00941664	11.0049	0.000636239	0.568766	6.78006e-05	4903.86	0.0567991	140	0.415671
71	-0.153508	0.0272909	11.0049	0.000636239	0.538642	6.07877e-05	4918.79	0.0509241	142.73	0.544297
72	-0.161928	0.0117698	11.0049	0.000636239	0.535117	5.75029e-05	4910.19	0.0481724	143.983	0.52773
73	-0.181702	0.011663	11.0049	0.000636239	0.539069	6.80524e-05	4905.95	0.0570101	143.8	0.556518
74	-0.224473	0.0701416	11.0049	0.000636239	0.551263	5.72601e-05	4905.04	0.047969	142.211	0.447789
75	-0.145222	0.0514489	11.0049	0.000636239	0.523511	5.40577e-05	4910.78	0.0452862	145.617	0.592356
76	-0.174678	0.0104858	11.0049	0.000636239	0.52429	5.28989e-05	4902.67	0.0443154	146.256	0.592513
77	-0.219877	0.0388995	11.0049	0.000636239	0.530445	5.50342e-05	4910.08	0.0461042	145.142	0.726053
78	-0.139981	0.00475751	11.0049	0.000636239	0.511632	5.21144e-05	4910.01	0.0436582	147.979	0.710734
79	-0.199146	0.0388765	11.0049	0.000636239	0.510198	5.11121e-05	4905.43	0.0428186	148.777	0.72402
80	-0.227715	0.0409766	11.0049	0.000636239	0.516943	5.25221e-05	4903.38	0.0439997	147.518	0.623128
81	-0.417332	0.109321	11.0049	0.000636239	0.504735	4.99894e-05	4905.65	0.041878	139.459	17.8376
82	-0.263502	0.0166997	11.0049	0.000636239	0.496073	4.81183e-05	4905.03	0.0403106	147.479	6.11962
83	-0.326274	0.0568459	11.0049	0.000636239	0.508547	4.99596e-05	4897.51	0.041853	149.837	0.677962
84	-0.183891	0.00396775	11.0049	0.000636239	0.480036	4.47134e-05	4915.11	0.0374581	154.041	0.795301
85	-0.338715	0.0967078	11.0049	0.000636239	0.489103	4.84043e-05	4900.31	0.0405501	153.534	0.773498
86	-0.27153	0.0614076	11.0049	0.000636239	0.473866	4.45792e-05	4906.88	0.0373457	156.842	0.87432
87	-0.464557	0.0957099	11.0049	0.000636239	0.48358	4.53345e-05	4898.07	0.0379785	156.022	0.87065
88	-1.18048	0.346446	11.0049	0.000636239	0.495344	4.27969e-05	4880.51	0.0358526	157.835	0.934995
89	-1.16319	0.353016	11.0049	0.000636239	0.480103	4.36115e-05	4889.17	0.036535	161.558	1.1117
90	-3.35419	1.08631	11.0049	0.000636239	0.543563	4.38403e-05	4829.39	0.0367267	160.165	1.14981
91	-0.114064	0.0194693	11.0049	0.000636239	0.638442	8.1542e-05	4924.99	0.0683109	132.578	0.433625
92	-0.126752	0.0734127	11.0049	0.000636239	0.625173	7.42665e-05	4907.38	0.0622159	133.902	0.389953
93	-0.0807786	0.088599	11.0049	0.000636239	0.611532	7.61845e-05	4914.87	0.0638226	134.796	0.426104
94	-0.170417	0.0351716	11.0049	0.000636239	0.617843	7.54845e-05	4906.4	0.0632362	134.542	0.435646
95	-0.163195	0.00967973	11.0049	0.000636239	0.628334	8.47355e-05	4915.2	0.0709861	133.514	0.423819
96	-0.197365	0.0787411	11.0049	0.000636239	0.650318	8.66776e-05	4917.73	0.0726131	131.861	0.403112
97	-0.13234	0.0210861	11.0049	0.000636239	0.620632	0.000298532	4906.24	0.250091	134.993	0.418149
98	-0.124424	0.0446929	11.0049	0.000636239	0.598435	6.41498e-05	4909.25	0.0537407	136.187	0.46129
99	-0.10506	0.0859249	11.0049	0.000636239	0.595129	6.11695e-05	4911.69	0.051244	136.564	0.468798
100	-0.0725535	0.0460445	11.0049	0.000636239	0.60869	7.38306e-05	4906.52	0.0618507	135.713	0.457787
101	-0.186951	0.0110783	11.0049	0.000636239	0.618735	7.16663e-05	4916.04	0.0600376	134.336	0.424359
102	-0.0741435	0.0765188	11.0049	0.000636239	0.594374	7.78178e-05	4917.18	0.065191	136.501	0.464452
103	-0.135052	0.0532604	11.0049	0.000636239	0.586827	6.27954e-05	4910.51	0.0526061	135.011	4.49208
104	-0.130134	0.0121274	11.0049	0.000636239	0.581723	5.99516e-05	4910.18	0.0502237	138.33	0.485191
105	-0.0753602	0.033976	11.0049	0.000636239	0.589275	6.57381e-05	4902.68	0.0550713	137.57	0.474098
106	-0.402906	7.13086e-05	11.0049	0.000636239	0.609067	7.02267e-05	4886.1	0.0588316	135.992	0.433462
107	-0.103827	0.0301788	11.0049	0.000636239	0.579388	6.87591e-05	4917.42	0.0576021	138.388	0.541262
108	-0.0886674	0.00933888	11.0049	0.000636239	0.563811	7.93035e-05	4912.2	0.0664355	139.895	0.665568
109	-0.158236	0.0255742	11.0049	0.000636239	0.564217	6.51451e-05	4909.27	0.0545745	140.314	0.478862
110	-0.0114323	0.0362617	11.0049	0.000636239	0.569884	5.87489e-05	4911.3	0.0492162	139.53	0.489862
111	-0.12459	0.00360626	11.0049	0.000636239	0.556949	5.85139e-05	4914.43	0.0490194	141.136	0.540428
112	-0.103755	0.0366523	11.0049	0.000636239	0.551633	6.17768e-05	4904.39	0.0517528	142.342	0.515876
113	-0.140999	0.0678527	11.0049	0.000636239	0.550162	5.91207e-05	4909.06	0.0495277	142.177	0.513779
114	-0.184863	0.0361927	11.0049	0.000636239	0.563619	5.54893e-05	4907	0.0464855	113.481	46.43
115	-0.155287	0.0508361	11.0049	0.000636239	0.542854	6.6491e-05	4912.5	0.055702	143.151	0.494275
116	-0.0776734	0.0564236	11.0049	0.000636239	0.534796	6.08561e-05	4906.43	0.0509814	144.48	0.544621
117	-0.109723	0.0549868	11.0049	0.000636239	0.532246	7.18576e-05	4914.1	0.0601978	144.519	0.582304
118	-0.100841	0.0514397	11.0049	0.000636239	0.54518	5.61246e-05	4912.73	0.0470178	142.646	0.528415
119	0.128805	0.373068	11.0049	0.000636239	0.509967	5.45304e-05	5093.78	0.0456822	146.814	0.653066
120	-0.0795426	0.0122504	11.0049	0.000636239	0.523349	5.45767e-05	4902.54	0.045721	146.859	0.617141
121	-0.0385442	0.0732046	11.0049	0.000636239	0.525088	5.74012e-05	4908.87	0.0480872	145.834	0.572747
122	-0.131373	0.00731658	11.0049	0.000636239	0.511662	5.32642e-05	4910.23	0.0446214	148.548	0.64502
123	-0.093849	0.025202	11.0049	0.000636239	0.506262	5.18417e-05	4909.06	0.0434297	149.428	0.664341
124	-0.109319	0.0533704	11.0049	0.000636239	0.512651	5.16006e-05	4907.14	0.0432278	148.133	0.616426
125	-0.165425	0.0183467	11.0049	0.000636239	0.497025	5.12446e-05	4915.46	0.0429296	151.093	0.727202
126	-0.107096	0.0284427	11.0049	0.000636239	0.49718	5.25512e-05	4903.52	0.0440241	151.874	0.741154
127	-0.166931	0.0295901	11.0049	0.000636239	0.502465	5.26143e-05	4908.14	0.044077	150.416	0.688267
128	-0.0789407	0.0276706	11.0049	0.000636239	0.479956	4.75673e-05	4911.58	0.0398489	154.676	0.839809
129	-0.155506	0.0116988	11.0049	0.000636239	0.483107	4.48782e-05	4912.29	0.0375961	154.28	0.762229
130	-0.142702	0.0258333	11.0049	0.000636239	0.469426	5.39444e-05	4912.86	0.0451913	157.718	0.914562
131	-0.112249	0.0132955	11.0049	0.000636239	0.469544	5.56531e-05	4911.76	0.0466227	156.988	0.877945
132	-0.148709	0.0367763	11.0049	0.000636239	0.460149	4.75296e-05	4914.68	0.0398173	160.269	1.02645
133	-0.155906	0.0130728	11.0049	0.000636239	0.449464	4.80733e-05	4913.16	0.0402728	164.237	1.24949
134	-0.134691	0.00584276	11.0049	0.000636239	0.438905	5.33586e-05	4916.98	0.0447006	168.027	1.79708
135	-0.198189	0.0101963	11.0049	0.000636239	0.534647	6.27806e-05	4904.3	0.0525937	66.3308	0.18019
136	-0.198189	0.0101963	11.0049	0.000636239	0.522725	6.01889e-05	4903.98	0.0504225	63.9156	0.034551
137	-0.198189	0.0101963	11.0049	0.000636239	0.513504	6.1075e-05	4909.28	0.0511648	62.3035	0.132092
138	-0.198189	0.0101963	11.0049	0.000636239	0.525299	6.18904e-05	4901.91	0.051848	61.0156	0.0709072
139	-0.198189	0.0101963	11.0049	0.000636239	0.528753	6.79073e-05	4908.15	0.0568885	66.5518	0.149757
140	-0.198189	0.0101963	11.0049	0.000636239	0.52017	7.08682e-05	4904.11	0.059369	64.2605	0.0352609
141	-0.198189	0.0101963	11.0049	0.000636239	0.516743	5.66991e-05	4904.55	0.047499	62.3885	0.0620115
142	-0.198189	0.0101963	11.0049	0.000636239	0.526733	7.24439e-05	4900.62	0.060689	61.1435	0.0916893
143	-0.198189	0.0101963	11.0049	0.000636239	0.745898	0.000103421	4897.89	0.0866398	56.5736	0.0715475
144	-0.198189	0.0101963	11.0049	0.000636239	0.734347	0.000103827	4905.55	0.0869794	54.3361	0.0756417
145	-0.198189	0.0101963	11.0049	0.000636239	0.731432	0.000107284	4905.23	0.0898757	52.4752	0.0507134
146	-0.198189	0.0101963	11.0049	0.000636239	0.73448	0.000122076	4908.04	0.102268	51.041	0.0404474
147	-0.198189	0.0101963	11.0049	0.000636239	0.745935	0.000113886	4905.73	0.0954063	56.6709	0.175307
148	-0.198189	0.0101963	11.0049	0.000636239	0.735601	0.000116567	4902.58	0.0976526	54.4186	0.170689
149	-0.198189	0.0101963	11.0049	0.000636239	0.734593	0.000102852	4903.51	0.0861628	52.5599	0.0949256
150	-0.198189	0.0101963	11.0049	0.000636239	0.739146	0.000114316	4901.2	0.095767	51.0798	0.0374212
151	-0.198189	0.0101963	11.0049	0.000636239	0.52655	6.01304e-05	4911.08	0.0503735	52.0397	0.129683
152	-0.198189	0.0101963	11.0049	0.000636239	0.516444	5.91889e-05	4909.24	0.0495848	47.2641	0.165897
153	-0.198189	0.0101963	11.0049	0.000636239	0.512981	5.44042e-05	4907.7	0.0455765	43.9561	0.105916
154	-0.198189	0.0101963	11.0049	0.000636239	0.522053	6.47926e-05	4907.48	0.0542792	41.3325	0.0811195
155	-0.198189	0.0101963	11.0049	0.000636239	0.530743	6.73312e-05	4905.56	0.0564059	51.8262	0.101556
156	-0.198189	0.0101963	11.0049	0.000636239	0.515543	5.79965e-05	4905.06	0.0485859	47.3275	0.0566336
157	-0.198189	0.0101963	11.0049	0.000636239	0.515406	5.92451e-05	4905.76	0.0496319	43.685	0.170457
158	-0.198189	0.0101963	11.0049	0.000636239	0.520612	6.57419e-05	4906.76	0.0550745	41.2306	0.121144
159	-0.198189	0.0101963	11.0049	0.000636239	0.732703	9.67844e-05	4907.85	0.08108	42.1681	0.17625
160	-0.198189	0.0101963	11.0049	0.000636239	0.724102	0.000108342	4911.2	0.0907625	38.1092	0.086586
161	-0.198189	0.0101963	11.0049	0.000636239	0.725803	0.000108385	4905.84	0.0907979	35.9821	2.58269
162	-0.198189	0.0101963	11.0049	0.000636239	0.731324	0.000109352	4905.82	0.0916079	31.9521	0.139953
163	-0.198189	0.0101963	11.0049	0.000636239	0.738421	0.000117637	4900.13	0.0985486	42.4773	0.0678791
164	-0.198189	0.0101963	11.0049	0.000636239	0.733223	0.000105772	4901.47	0.0886088	38.8042	0.0912012
165	-0.198189	0.0101963	11.0049	0.000636239	0.72859	0.00010766	4901.58	0.0901911	34.847	0.331818
166	-0.198189	0.0101963	11.0049	0.000636239	0.731362	0.000108166	4905.71	0.090615	32.4451	0.144032
167	-0.198189	0.0101963	11.0049	0.000636239	0.730793	0.000104465	4908.53	0.0875142	45.9422	0.141725
168	-0.198189	0.0101963	11.0049	0.000636239	0.721008	0.000102258	4906.76	0.0856658	42.3615	0.0853001
169	-0.198189	0.0101963	11.0049	0.000636239	0.723219	9.49273e-05	4903.06	0.0795242	39.3816	0.0636193
170	-0.198189	0.0101963	11.0049	0.000636239	0.723689	0.000104258	4910.13	0.0873406	37.0425	0.0802767
171	-0.198189	0.0101963	11.0049	0.000636239	0.735679	0.000120187	4917.42	0.100685	45.9784	0.129248
172	-0.198189	0.0101963	11.0049	0.000636239	0.725388	0.000137704	4908.03	0.11536	42.541	0.11469
173	-0.198189	0.0101963	11.0049	0.000636239	0.729968	0.00203583	4897.41	1.70549	39.4438	0.084043
174	-0.198189	0.0101963	11.0049	0.000636239	0.73062	0.000446789	4907.25	0.374292	37.1173	0.0775639
175	-0.198189	0.0101963	11.0049	0.000636239	0.5232	5.90274e-05	4905.93	0.0494495	55.0734	0.157433
176	-0.198189	0.0101963	11.0049	0.000636239	0.511102	5.49484e-05	4904.75	0.0460323	51.1057	0.140936
177	-0.198189	0.0101963	11.0049	0.000636239	0.510398	5.56671e-05	4903.92	0.0466344	47.9855	0.130018
178	-0.198189	0.0101963	11.0049	0.000636239	0.513903	6.114e-05	4907.35	0.0512193	45.9747	0.0987465
179	-0.198189	0.0101963	11.0049	0.000636239	0.528081	6.50535e-05	4905.78	0.0544978	54.9336	0.114287
180	-0.198189	0.0101963	11.0049	0.000636239	0.512291	6.73715e-05	4907.78	0.0564397	51.1001	0.235495
181	-0.198189	0.0101963	11.0049	0.000636239	0.485184	0.00030238	4928.14	0.253315	48.0392	0.0699082
182	-0.198189	0.0101963	11.0049	0.000636239	0.517488	0.000110803	4905.44	0.0928243	45.9006	0.124246
183	-0.198189	0.0101963	11.0049	0.000636239	0.746548	0.000108868	4902.29	0.0912032	60.3577	0.046433
184	-0.198189	0.0101963	11.0049	0.000636239	0.735298	0.000105336	4900.82	0.0882437	58.335	0.0689649
185	-0.198189	0.0101963	11.0049	0.000636239	0.735693	0.000101505	4900.57	0.085035	56.7513	0.0701567
186	-0.198189	0.0101963	11.0049	0.000636239	0.741857	0.000108947	4896.92	0.0912687	55.6541	0.114148
187	-0.198189	0.0101963	11.0049	0.000636239	0.745373	0.000128513	4904.36	0.10766	60.3455	0.0966579
188	-0.198189	0.0101963	11.0049	0.000636239	0.727925	0.000129072	4912.95	0.108129	58.4248	0.0380883
189	-0.198189	0.0101963	11.0049	0.000636239	0.727337	0.000118103	4909.58	0.0989395	56.8181	0.0490144
190	-0.198189	0.0101963	11.0049	0.000636239	0.731276	0.000131977	4908.71	0.110562	55.6473	0.0547405
191	-0.198189	0.0101963	11.0049	0.000636239	0.532002	7.00793e-05	4904.42	0.0587081	69.561	0.0963509
192	-0.198189	0.0101963	11.0049	0.000636239	0.515904	5.79869e-05	4905.67	0.0485778	67.725	0.0527172
193	-0.198189	0.0101963	11.0049	0.000636239	0.51728	6.18244e-05	4901.17	0.0517926	66.205	0.0584433
194	-0.198189	0.0101963	11.0049	0.000636239	0.523897	6.78581e-05	4905.01	0.0568473	63.894	2.3454
195	-0.198189	0.0101963	11.0049	0.000636239	0.537341	6.8995e-05	4908.99	0.0577997	70.0784	0.0817671
196	-0.198189	0.0101963	11.0049	0.000636239	0.524667	6.09158e-05	4907.38	0.0510315	68.0035	0.0299855
197	-0.198189	0.0101963	11.0049	0.000636239	0.522205	6.23499e-05	4903.08	0.0522329	66.4517	0.0638752
198	-0.198189	0.0101963	11.0049	0.000636239	0.526959	6.61553e-05	4904.45	0.0554208	65.3945	0.0665996
